Differential intensity (J) of cosmic ray (protons) near-Earth values downloaded from HVO:
 Starting from OULU station monthly rate:
column 1 - Date in fraction of year.
column 2 - J values [GeV^-1 m^-2 s^-1 sr^-1].

1980.001	529.105945872103
1980.086	510.87868656892
1980.165	548.272928806992
1980.250	501.532509095717
1980.332	502.830027222522
1980.416	431.126283717595
1980.498	431.315803345589
1980.583	439.092537822837
1980.668	437.605435675266
1980.750	395.795700146027
1980.834	362.306342510812
1980.916	359.341214377921
1981.001	426.667270593098
1981.086	393.80425519922
1981.163	383.792234274139
1981.248	363.092106054735
1981.330	339.135194908642
1981.415	393.760090631869
1981.497	400.674601062088
1981.582	403.097908862273
1981.667	434.8094844233
1981.749	367.334018403178
1981.834	375.831245228874
1981.916	418.086307999685
1982.001	466.184185707109
1982.086	387.68094627308
1982.163	460.0625770822
1982.248	479.219756942994
1982.330	503.413349323238
1982.415	387.593707721575
1982.497	315.927342511877
1982.582	307.410651408621
1982.667	270.811392251841
1982.749	311.398305094238
1982.834	330.939525006438
1982.916	301.262231196503
1983.001	347.158547168357
1983.086	393.340721812372
1983.163	438.420472564601
1983.248	441.041092800783
1983.330	377.79299001615
1983.415	416.97689316997
1983.497	461.431649645216
1983.582	463.303387386774
1983.667	480.630049367823
1983.749	493.508938540554
1983.834	506.390313750474
1983.916	507.16312907061
1984.001	530.754569984758
1984.086	519.69363643619
1984.165	481.066560900295
1984.250	454.714805064598
1984.332	403.637973150251
1984.416	445.370178250936
1984.498	459.143247886236
1984.583	493.796729074345
1984.668	505.112973138803
1984.750	505.112973138803
1984.834	496.970253739984
1984.916	508.550919217371
1985.001	516.257774717893
1985.086	557.571020804306
1985.163	565.82240628825
1985.248	578.213933552495
1985.330	589.12503259112
1985.415	624.552291464444
1985.497	612.405931310899
1985.582	613.309814840777
1985.667	654.589811131255
1985.749	676.387444856139
1985.834	713.561151796798
1985.916	689.109414933852
1986.001	679.317577934989
1986.086	618.991961773729
1986.163	671.085194362822
1986.248	740.527095934278
1986.330	750.978960125608
1986.415	756.294085949693
1986.497	759.91279516172
1986.582	764.311132669852
1986.667	774.858845834984
1986.749	793.347827204635
1986.834	741.655904461441
1986.916	801.331066247027
1987.001	849.398820664741
1987.086	861.878059180487
1987.163	867.137545678727
1987.248	855.268830355417
1987.330	830.945936919127
1987.415	769.022312141527
1987.497	742.586050362153
1987.582	711.962002787761
1987.667	684.940915069991
1987.749	687.05565940431
1987.834	662.68445077405
1987.916	667.383306804917
1988.001	579.902240150438
1988.086	610.570458180296
1988.165	622.90854832352
1988.250	607.178931415874
1988.332	614.90859168305
1988.416	602.485473893575
1988.498	549.48238233626
1988.583	551.088304558153
1988.668	548.582157454203
1988.750	537.660990065943
1988.834	527.07740908696
1988.916	458.64687695748
1989.001	428.291075830766
1989.086	420.962802457204
1989.163	326.704554646463
1989.248	344.513180475271
1989.330	312.000209169343
1989.415	325.189564239403
1989.497	382.646793588595
1989.582	355.560819825152
1989.667	333.363414787842
1989.749	297.858740912393
1989.834	262.140796136505
1989.916	286.789874792765
1990.001	317.294976657357
1990.086	324.207972354798
1990.163	303.163374788695
1990.248	272.936341637633
1990.330	267.54700373977
1990.415	264.712952614046
1990.497	305.594495644172
1990.582	297.157474065707
1990.667	327.920785444895
1990.749	360.018977059009
1990.834	387.920932488512
1990.916	393.318659521311
1991.001	443.358895465569
1991.086	457.457201015503
1991.163	317.795216831993
1991.248	333.016244416264
1991.330	343.285679923219
1991.415	184.117270977636
1991.497	192.171243577844
1991.582	262.565340140236
1991.667	334.116648167917
1991.749	354.463482218138
1991.834	360.347962725815
1991.916	394.754737222473
1992.001	388.816463074912
1992.086	374.026020814334
1992.165	423.480486206971
1992.250	493.875237997062
1992.332	473.100655525264
1992.416	533.786021046716
1992.498	569.703504452351
1992.583	554.819045402572
1992.668	538.938282064197
1992.750	586.39273779463
1992.834	568.120276041678
1992.916	613.520833887921
1993.001	601.799728315333
1993.086	603.85837117555
1993.163	564.217436166743
1993.248	610.810990614624
1993.330	629.437248656392
1993.415	645.98980942182
1993.497	651.965870828056
1993.582	656.185692805566
1993.667	677.692468076655
1993.749	679.22192848727
1993.834	692.871755621173
1993.916	685.805644945539
1994.001	691.616523672175
1994.086	637.020921820339
1994.163	639.982215392419
1994.248	629.92694064939
1994.330	664.227783758436
1994.415	667.636087351153
1994.497	684.940915069991
1994.582	713.038798896739
1994.667	729.740860953154
1994.749	711.179350575833
1994.834	707.20705574234
1994.916	699.940926117416
1995.001	725.886418337471
1995.086	736.217737129
1995.163	718.827066132121
1995.248	733.141452035685
1995.330	743.716164816694
1995.415	745.412669677619
1995.497	747.910415036814
1995.582	752.749008061336
1995.667	745.545796269916
1995.749	730.400633426032
1995.834	734.133198990522
1995.916	760.449472450393
1996.001	764.512815971613
1996.086	778.34139833088
1996.165	809.236600977736
1996.250	821.774863874054
1996.332	821.843717062791
1996.416	824.978202354104
1996.498	826.563891737282
1996.583	813.489925168301
1996.668	810.607919289377
1996.750	793.620329845019
1996.834	789.536052783142
1996.916	796.040134822591
1997.001	821.430621762746
1997.086	832.292806243053
1997.163	836.336708073996
1997.248	827.150112473401
1997.330	836.129210145336
1997.415	831.049522457735
1997.497	829.496088574282
1997.582	848.288313425482
1997.667	845.37476067772
1997.749	824.530220676155
1997.834	796.415248989238
1997.916	813.078026125271
1998.001	817.612231129399
1998.086	823.703350171853
1998.163	827.357040164357
1998.248	740.726245160811
1998.330	681.200070331664
1998.415	696.030832085988
1998.497	736.482620860323
1998.582	691.68086740102
1998.667	735.32405434373
1998.749	765.151613145869
1998.834	738.337939646998
1998.916	712.09248352477
1999.001	665.015927964178
1999.086	664.416893480692
1999.163	672.480108261529
1999.248	699.099851067806
1999.330	687.312212586734
1999.415	714.247006841382
1999.497	738.735765006538
1999.582	661.709036766555
1999.667	599.150617424715
1999.749	571.231809723604
1999.834	559.932809107447
1999.916	518.691024951336
2000.001	547.598645542759
2000.086	523.553785025836
2000.165	487.596502504995
2000.250	496.418447817025
2000.332	445.467279698235
2000.416	403.030440507513
2000.498	366.353183275957
2000.583	397.016587056457
2000.668	420.89303097073
2000.750	467.365318030959
2000.834	411.898220287424
2000.916	430.652761278286
2001.001	460.808973085136
2001.086	522.654970788708
2001.163	552.669038424089
2001.248	428.196813836798
2001.330	489.596371138419
2001.415	508.898278303932
2001.497	522.518878531008
2001.582	477.607994357769
2001.667	477.582442370749
2001.749	442.029872294283
2001.834	476.561171442312
2001.916	499.234535474941
2002.001	427.796376619746
2002.086	500.659992655925
2002.163	472.644013738464
2002.248	474.014898427892
2002.330	478.400594954484
2002.415	499.999704217581
2002.497	457.358164229743
2002.582	408.137761634421
2002.667	445.710102577046
2002.749	464.303921480015
2002.834	425.118463347767
2002.916	436.07434960138
2003.001	457.779179877451
2003.086	456.962175364162
2003.163	472.339763555367
2003.248	462.67885684018
2003.330	442.488651050879
2003.415	396.861037356403
2003.497	433.642551122402
2003.582	453.508076115543
2003.667	474.497931134266
2003.749	438.34851155996
2003.834	322.139694912862
2003.916	453.926468059231
2004.001	435.620588042342
2004.086	506.124015820573
2004.165	561.27306592456
2004.250	591.806131703679
2004.332	621.874881081907
2004.416	620.538668202555
2004.498	577.835942603576
2004.583	595.886187382389
2004.668	615.512538505854
2004.750	689.783964401304
2004.834	606.519939081018
2004.916	629.92694064939
2005.001	522.410022107383
2005.086	605.951152426451
2005.163	628.489087890874
2005.248	656.373580992278
2005.330	585.102770214336
2005.415	642.858267355905
2005.497	622.026828742668
2005.582	595.97507388379
2005.667	516.203791648982
2005.749	656.373580992278
2005.834	695.450069512507
2005.916	694.418184115863
2006.001	707.987670338971
2006.086	748.94381253471
2006.163	790.556463018912
2006.248	795.699171742427
2006.330	811.431041812772
2006.415	809.510809136825
2006.497	799.486503756805
2006.582	802.151302194156
2006.667	799.520650067723
2006.749	829.358041939904
2006.834	818.953259937688
2006.916	771.753004131829
2007.001	847.490333339471
2007.086	831.878325673094
2007.163	853.704981967212
2007.248	889.732020269302
2007.330	889.836975913696
2007.415	892.146375356287
2007.497	886.549099576346
2007.582	882.109505464821
2007.667	890.46674131355
2007.749	893.056331054387
2007.834	887.773129251069
2007.916	901.63577222996
2008.001	886.863829293036
2008.086	877.463547964855
2008.165	878.057189386012
2008.250	883.402616705213
2008.332	878.266724391092
2008.416	880.921476685104
2008.498	890.256813530109
2008.583	892.741334360991
2008.668	906.296423778617
2008.750	917.692539364789
2008.834	932.709786947726
2008.916	931.76229833093
2009.001	940.815937146721
2009.086	939.973778599765
2009.163	965.153544924781
2009.248	987.963023614531
2009.330	992.221673328536
2009.415	985.168627610198
2009.497	979.925517669361
2009.582	979.121182359159
2009.667	987.89318097285
2009.749	999.229916820237
2009.834	996.82529153183
2009.916	1002.36440798648
2010.001	983.176783288598
2010.086	928.639153693454
2010.163	892.496345714222
2010.248	860.381416392909
2010.330	877.463547964855
2010.415	865.952782495123
2010.497	860.033431442478
2010.582	847.420951607624
2010.667	847.386261213639
2010.749	862.469891379106
2010.834	845.686819761471
2010.916	821.912571838357
2011.001	835.852565929277
2011.086	819.503604449891
2011.163	807.317926823496
2011.248	737.741371436034
2011.330	779.289077856467
2011.415	687.79337799219
2011.497	717.353451401131
2011.582	725.919324264054
2011.667	721.909685780619
2011.749	702.985770414461
2011.834	745.412669677619
2011.916	794.710647944054
2012.001	743.317219471754
2012.086	703.439796306023
2012.165	619.810527059326
2012.250	728.817616152163
2012.332	739.763898641921
2012.416	692.292279242739
2012.498	597.279667292777
2012.583	613.098838492731
2012.668	660.702956872901
2012.750	657.40748200657
2012.834	670.768377605787
2012.916	694.224788597622
2013.001	704.64039066629
2013.086	706.296849224255
2013.163	676.83291816557
2013.248	681.168141732767
2013.330	590.420455780095
2013.415	586.774200643904
2013.497	596.864381671595
2013.582	615.633369557698
2013.667	635.358574263984
2013.749	670.609998317478
2013.834	654.558540253089
2013.916	626.625735328795
2014.001	641.249269450861
2014.086	584.312069549012
2014.163	605.502335140782
2014.248	620.356586404037
2014.330	645.98980942182
2014.415	602.903113836714
2014.497	623.882317007438
2014.582	654.933843942876
2014.667	619.507281416486
2014.749	620.842206733658
2014.834	611.352393295496
2014.916	550.299047074667
2015.001	574.846572986651
2015.086	581.243429218785
2015.163	542.475191029419
2015.248	568.26409007873
2015.330	603.709052479555
2015.415	595.589957221713
2015.497	632.378647583766
2015.582	637.020921820339
2015.667	637.822180571592
2015.749	645.213893765934
2015.834	658.285415059248
2015.916	678.711913581545
2016.001	733.273651654695
2016.086	763.370212011269
2016.165	757.198129392295
2016.250	764.075861081638
2016.332	767.338497793135
2016.416	785.017614383112
2016.498	768.314942003652
2016.583	793.926932133524
2016.668	796.585774365152
2016.750	826.80526340842
2016.834	850.405490476106
2016.916	848.496509326451
2017.001	871.007419578671
2017.086	880.816661620611
2017.163	891.761426340019
2017.248	869.473060576557
2017.330	878.825521115935
2017.415	888.822468335168
2017.497	851.968070723419
2017.582	812.048545812571
2017.667	788.074239264824
2017.749	828.495386012473
2017.834	869.577661327976
2017.916	877.847661931646
2018.001	879.419300692975
2018.086	891.271519333743
2018.163	896.101935558857
2018.248	904.964603024338
2018.330	899.07858356183
2018.415	922.70922105468
2018.497	919.376335726957
2018.582	919.446496854709
2018.667	925.305644043448
2018.749	931.516654033981
2018.834	924.077579656104
2018.916	917.236535669726
2019.001	918.113475358933
2019.086	912.116087978732
2019.163	937.903416908475
2019.248	936.991034831678
2019.330	903.28253447386
2019.415	929.551520331801
2019.497	929.586611604142
2019.582	926.147769652328
2019.667	941.166831962236
2019.749	948.990771568558
2019.834	941.517723877312
2019.916	943.587919564554
2020.001	954.848064286577
2020.086	972.823110267388
2020.165	967.325525971016
2020.250	984.469812322775
2020.332	971.352781714439
2020.416	957.618097116637
2020.498	953.234885581358
2020.583	951.200643862308
2020.668	949.481876383158
2020.750	945.377303072397
2020.834	945.622895814275
2020.916	922.533795129102
2021.001	916.745467076604
2021.086	872.298027873086
2021.163	923.446021741522
2021.248	939.728146310041
2021.330	936.043552386967
