Differential intensity (J) of cosmic ray (protons) near-Earth values downloaded from HVO:
 Starting from OULU station monthly rate: 
column 1 - Date in fraction of year.
column 2 - J values [GeV^-1 m^-2 s^-1 sr^-1].

1980.001	528.886390690606
1980.086	510.664331492897
1980.165	548.048107149676
1980.250	501.320892204572
1980.332	502.5915317052
1980.416	430.913149716667
1980.498	431.126283717595
1980.583	438.900440058231
1980.668	437.389881966775
1980.750	395.618362684505
1980.834	362.141094295444
1980.916	359.177064462812
1981.001	426.455816432987
1981.086	393.627620337946
1981.163	383.619163050668
1981.248	362.905879530793
1981.330	338.978649419336
1981.415	393.583471375716
1981.497	400.495551032768
1981.582	402.918012843219
1981.667	434.594971810509
1981.749	367.166918247761
1981.834	375.63977404877
1981.916	417.901247942439
1982.001	465.958260459097
1982.086	387.506484722522
1982.163	459.863688473712
1982.248	479.014871826125
1982.330	503.201177505332
1982.415	387.397477843132
1982.497	315.779787834578
1982.582	307.248445173335
1982.667	270.682092303623
1982.749	311.252536789283
1982.834	330.786123324359
1982.916	301.102785668187
1983.001	346.998957132317
1983.086	393.16425078682
1983.163	438.228596331143
1983.248	440.848354100973
1983.330	377.622079091957
1983.415	416.792211294064
1983.497	461.232325901319
1983.582	463.078485204989
1983.667	480.399070287057
1983.749	493.299710875347
1983.834	506.177267605772
1983.916	506.94985675505
1984.001	530.507055927797
1984.086	519.449636029589
1984.165	480.835431096441
1984.250	454.517625831
1984.332	403.457889010923
1984.416	445.176022848992
1984.498	458.919832007519
1984.583	493.587415098744
1984.668	504.873721985921
1984.750	504.900301544425
1984.834	496.759991025373
1984.916	508.310536264105
1985.001	516.04186571365
1985.086	557.343719619239
1985.163	565.564267934306
1985.248	577.981305409166
1985.330	588.889688917785
1985.415	624.308616490567
1985.497	612.165028304791
1985.582	613.068702500938
1985.667	654.308402232899
1985.749	676.101148327091
1985.834	713.299953343037
1985.916	688.852529468777
1986.001	679.062527931486
1986.086	618.749544717316
1986.163	670.831734752407
1986.248	740.261598548637
1986.330	750.71192849391
1986.415	755.992832590966
1986.497	759.610978755464
1986.582	764.042253106719
1986.667	774.554812849525
1986.749	793.075355418738
1986.834	741.390237786445
1986.916	801.057712924718
1987.001	849.086458451203
1987.086	861.599576480219
1987.163	866.858751906686
1987.248	854.990769863717
1987.330	830.669725020345
1987.415	768.752809160481
1987.497	742.320244842728
1987.582	711.701074467964
1987.667	684.684803484287
1987.749	686.767093976117
1987.834	662.432658195082
1987.916	667.130576321168
1988.001	579.669187271971
1988.086	610.329981763882
1988.165	622.665243270585
1988.250	606.939248537476
1988.332	614.636929012499
1988.416	602.246900487825
1988.498	549.257235356996
1988.583	550.862726904096
1988.668	548.357252540364
1988.750	537.43905852462
1988.834	526.858423427879
1988.916	458.423639119764
1989.001	428.079008562058
1989.086	420.753514614235
1989.163	326.533824516477
1989.248	344.35459062013
1989.330	311.854202861009
1989.415	325.038388581713
1989.497	382.474133390974
1989.582	355.398076740194
1989.667	333.209079758288
1989.749	298.245039638451
1989.834	262.015120904083
1989.916	286.653993091952
1990.001	317.14688458521
1990.086	324.038333263504
1990.163	303.020881053419
1990.248	272.806159060037
1990.330	267.419064077334
1990.415	264.570357639439
1990.497	305.45103163636
1990.582	296.999883516294
1990.667	327.7685503375
1990.749	359.854575698282
1990.834	387.724571381249
1990.916	393.142196296461
1991.001	443.286326126314
1991.086	457.259143271618
1991.163	317.646928432801
1991.248	332.842771865016
1991.330	343.107794036837
1991.415	184.014455084469
1991.497	192.064292446764
1991.582	262.439486559807
1991.667	333.942699823625
1991.749	354.301148868155
1991.834	360.162878271088
1991.916	394.577766764173
1992.001	388.619743148313
1992.086	373.856475886774
1992.165	423.29359662467
1992.250	493.639737708142
1992.332	472.897664138294
1992.416	533.537557522541
1992.498	569.444239002396
1992.583	554.564155605704
1992.668	538.688218218474
1992.750	586.158067583214
1992.834	567.890221795703
1992.916	613.279672747911
1993.001	601.561318108094
1993.086	603.61947187799
1993.163	563.988392976255
1993.248	610.570458180296
1993.330	629.192483993672
1993.415	645.710420673254
1993.497	651.685072831791
1993.582	655.935220175611
1993.667	677.437728617671
1993.749	678.935021162745
1993.834	692.614181267742
1993.916	685.54937190747
1994.001	691.327013254569
1994.086	636.774494225001
1994.163	639.735147990998
1994.248	629.6514622232
1994.330	663.944172375428
1994.415	667.351712756036
1994.497	684.684803484287
1994.582	712.777688495438
1994.667	729.477024682276
1994.749	710.918555078029
1994.834	706.946940576071
1994.916	699.682082120385
1995.001	725.623194644351
1995.086	735.952893973982
1995.163	718.564990073001
1995.248	732.877083592188
1995.330	743.450191395799
1995.415	745.146445841229
1995.497	747.643826095183
1995.582	752.481724012296
1995.667	745.279552866277
1995.749	730.136693297039
1995.834	733.835614415308
1995.916	760.147573411071
1996.001	764.243909402013
1996.086	778.070708191283
1996.165	808.756803762853
1996.250	821.499467004504
1996.332	821.533890222102
1996.416	824.702513567881
1996.498	826.288061317981
1996.583	813.215319036751
1996.668	810.333600229652
1996.750	793.313766543013
1996.834	789.230016121742
1996.916	795.733265913247
1997.001	821.155256723875
1997.086	832.051019531784
1997.163	836.060046980027
1997.248	826.874230175367
1997.330	835.852565929277
1997.415	830.773301718121
1997.497	829.185492043222
1997.582	848.01073635571
1997.667	845.09739667925
1997.749	824.254572248103
1997.834	796.10833313346
1997.916	812.803460644291
1998.001	817.337225131736
1998.086	823.3933317035
1998.163	827.081139616091
1998.248	740.427529736518
1998.330	680.944662701658
1998.415	695.772686354604
1998.497	736.184629514759
1998.582	691.391343759397
1998.667	735.059348437629
1998.749	764.882621225499
1998.834	738.072773038514
1998.916	711.831533100603
1999.001	664.763668283333
1999.086	664.164753488494
1999.163	672.194663115003
1999.248	698.841156432804
1999.330	687.023593602901
1999.415	713.985693046948
1999.497	738.470538045797
1999.582	661.42599466865
1999.667	598.912840293199
1999.749	570.972103135651
1999.834	559.704885993905
1999.916	518.47441832207
2000.001	547.374005618105
2000.086	523.308549620349
2000.165	487.389058090977
2000.250	496.182091808895
2000.332	445.273092634541
2000.416	402.850568000407
2000.498	366.186443388017
2000.583	396.838819878338
2000.668	420.683769743887
2000.750	467.164120081423
2000.834	411.715277929305
2000.916	430.439805103824
2001.001	460.609847122534
2001.086	522.437234764675
2001.163	552.44303828932
2001.248	428.008337246446
2001.330	489.362319598657
2001.415	508.684499389712
2001.497	522.273973307874
2001.582	477.378061969556
2001.667	477.378061969556
2001.749	441.812680688204
2001.834	476.357106595999
2001.916	499.023599236249
2002.001	427.608034315574
2002.086	500.422218408384
2002.163	472.415812774892
2002.248	473.811622807812
2002.330	478.195962168375
2002.415	499.762150015703
2002.497	457.135389331743
2002.582	407.933414748926
2002.667	445.515836358488
2002.749	464.103688124486
2002.834	424.907595443471
2002.916	435.85936542548
2003.001	457.581019255144
2003.086	456.73954291797
2003.163	472.137009071858
2003.248	462.479137574307
2003.330	442.271290280496
2003.415	396.68332488397
2003.497	433.428474411416
2003.582	453.311284732231
2003.667	474.294505525425
2003.749	438.132681948942
2003.834	321.970962376709
2003.916	453.704930822636
2004.001	435.429637317969
2004.086	505.884431058723
2004.165	561.016261185144
2004.250	591.570131453476
2004.332	621.631809490114
2004.416	620.26555712992
2004.498	577.603409780914
2004.583	595.649196092452
2004.668	615.270918081092
2004.750	689.526954755184
2004.834	606.280411188115
2004.916	629.682067549779
2005.001	522.165151653657
2005.086	605.71175851213
2005.163	628.244533602166
2005.248	656.091759547679
2005.330	584.868419479391
2005.415	642.610583714996
2005.497	621.783722791947
2005.582	595.826934189461
2005.667	516.44674600028
2005.749	656.718117678775
2005.834	695.708157177961
2005.916	696.353579515276
2006.001	708.410671523726
2006.086	749.310641257141
2006.163	790.896697918661
2006.248	796.142433000108
2006.330	811.808388903924
2006.415	809.819326548257
2006.497	799.89629009921
2006.582	801.501926988375
2006.667	799.384067609913
2006.749	829.668655252055
2006.834	819.262815975432
2006.916	772.022896050303
2007.001	847.698486077852
2007.086	832.258264192005
2007.163	854.017704400152
2007.248	890.046891720998
2007.330	890.151851877045
2007.415	892.496345714222
2007.497	886.793888105028
2007.582	881.795005083312
2007.667	890.781644130468
2007.749	893.441344135519
2007.834	887.913032105589
2007.916	901.95108887886
2008.001	887.213545907667
2008.086	877.777821129415
2008.165	878.30164762416
2008.250	883.787105812138
2008.332	878.650891422579
2008.416	880.467291087108
2008.498	890.326788795466
2008.583	892.426350376213
2008.668	905.735637957295
2008.750	917.131305599015
2008.834	932.113219464818
2008.916	931.200826339828
2009.001	940.254499761105
2009.086	939.412331700616
2009.163	964.557914539084
2009.248	988.416978751353
2009.330	991.663362918238
2009.415	984.609582145648
2009.497	978.246792670073
2009.582	978.806415416799
2009.667	987.33440752392
2009.749	998.672437356485
2009.834	996.232652330357
2009.916	1001.77251341371
2010.001	982.58259449676
2010.086	928.077704131894
2010.163	891.901405562778
2010.248	859.824653537258
2010.330	876.869967766503
2010.415	865.395347415066
2010.497	858.989640472411
2010.582	846.831257798163
2010.667	846.831257798163
2010.749	861.878059180487
2010.834	845.132066052105
2010.916	821.327356885303
2011.001	835.887145224045
2011.086	818.953259937688
2011.163	806.769987453114
2011.248	737.178133406915
2011.330	778.578279741312
2011.415	687.280140836787
2011.497	716.829830223904
2011.582	725.392908525502
2011.667	721.351751714999
2011.749	702.434640459242
2011.834	744.846990843604
2011.916	794.13135528294
2012.001	742.785430475088
2012.086	702.920920934109
2012.165	619.173810820965
2012.250	728.290277009983
2012.332	739.200008852776
2012.416	691.745214067069
2012.498	596.745760805371
2012.583	612.616767258422
2012.668	660.200221917853
2012.750	656.906087673671
2012.834	670.261632194129
2012.916	693.322623420578
2013.001	702.888497259653
2013.086	705.776978623769
2013.163	676.292005792295
2013.248	680.657386959084
2013.330	589.949190636231
2013.415	586.216729694922
2013.497	596.389984025698
2013.582	615.150128713748
2013.667	634.897244373266
2013.749	670.609998317478
2013.834	654.558540253089
2013.916	626.625735328795
2014.001	641.249269450861
2014.086	584.312069549012
2014.163	605.502335140782
2014.248	620.356586404037
2014.330	645.98980942182
2014.415	602.903113836714
2014.497	623.882317007438
2014.582	654.933843942876
2014.667	619.507281416486
2014.749	620.842206733658
2014.834	611.352393295496
2014.916	550.299047074667
2015.001	574.846572986651
2015.086	581.243429218785
2015.163	542.475191029419
2015.248	568.26409007873
2015.330	603.709052479555
2015.415	595.589957221713
2015.497	632.378647583766
2015.582	637.020921820339
2015.667	637.822180571592
2015.749	645.213893765934
2015.834	658.285415059248
2015.916	678.711913581545
2016.001	733.273651654695
2016.086	763.370212011269
2016.165	757.198129392295
2016.250	764.075861081638
2016.332	767.338497793135
2016.416	785.017614383112
2016.498	768.314942003652
2016.583	793.926932133524
2016.668	796.585774365152
2016.750	826.80526340842
2016.834	850.405490476106
2016.916	848.496509326451
2017.001	871.007419578671
2017.086	880.816661620611
2017.163	891.761426340019
2017.248	869.473060576557
2017.330	878.825521115935
2017.415	888.822468335168
2017.497	851.968070723419
2017.582	812.048545812571
2017.667	788.074239264824
2017.749	828.495386012473
2017.834	869.577661327976
2017.916	877.847661931646
2018.001	879.419300692975
2018.086	891.271519333743
2018.163	896.101935558857
2018.248	904.964603024338
2018.330	899.07858356183
2018.415	922.70922105468
2018.497	919.376335726957
2018.582	919.446496854709
2018.667	925.305644043448
2018.749	931.516654033981
2018.834	924.077579656104
2018.916	917.236535669726
2019.001	918.113475358933
2019.086	912.116087978732
2019.163	937.903416908475
2019.248	936.991034831678
2019.330	903.28253447386
2019.415	929.551520331801
2019.497	929.586611604142
2019.582	926.147769652328
2019.667	941.166831962236
2019.749	948.990771568558
2019.834	941.517723877312
2019.916	943.587919564554
2020.001	954.848064286577
2020.086	972.823110267388
2020.165	967.325525971016
2020.250	984.469812322775
2020.332	971.352781714439
2020.416	957.618097116637
2020.416	957.618097116637
